WL     Counts
4036.82    5437.012000
4038.36    5506.620000
4039.90    5747.366000
4041.44    5748.782000
4042.99    5761.701000
4044.53    5668.757000
4046.07    5436.669000
4047.62    5516.440000
4049.16    5716.890000
4050.70    6037.125000
4052.24    6215.442000
4053.79    5984.725000
4055.33    6016.164000
4056.87    6319.614000
4058.42    5999.783000
4059.96    5773.274000
4061.50    5721.297000
4063.05    5796.349000
4064.59    5784.175000
4066.13    5687.645000
4067.68    5159.118000
4069.22    4664.936000
4070.76    5021.315000
4072.30    4889.295000
4073.85    5158.454000
4075.39    5419.276000
4076.93    5737.816000
4078.48    5856.321000
4080.02    5361.790000
4081.56    5231.268000
4083.11    5242.606000
4084.65    4995.110000
4086.19    4741.904000
4087.73    5244.269000
4089.28    5565.842000
4090.82    5577.857000
4092.36    5341.718000
4093.91    5080.886000
4095.45    4536.921000
4096.99    4866.647000
4098.53    4723.230000
4100.08    4863.783000
4101.62    5045.012000
4103.16    4909.492000
4104.71    5048.779000
4106.25    5167.772000
4107.79    5114.361000
4109.34    5081.581000
4110.88    4977.320000
4112.42    4969.810000
4113.97    5098.260000
4115.51    5245.768000
4117.05    4805.938000
4118.59    5164.076000
4120.14    5084.784000
4121.68    5085.151000
4123.22    5704.253000
4124.77    5283.396000
4126.31    5723.128000
4127.85    5838.014000
4129.40    5734.317000
4130.94    5273.552000
4132.48    5238.291000
4134.02    5500.057000
4135.57    5261.233000
4137.11    4672.236000
4138.65    4726.028000
4140.20    4866.252000
4141.74    4477.559000
4143.28    4444.061000
4144.82    4838.734000
4146.37    5061.212000
4147.91    4924.710000
4149.45    5011.998000
4151.00    4961.175000
4152.54    4961.409000
4154.08    5113.822000
4155.63    5096.380000
4157.17    5080.884000
4158.71    4974.459000
4160.26    4812.098000
4161.80    5134.465000
4163.34    4961.771000
4164.88    4681.189000
4166.43    4408.958000
4167.97    4684.033000
4169.51    5011.350000
4171.06    4766.445000
4172.60    4331.794000
4174.14    4493.318000
4175.69    4768.363000
4177.23    5169.700000
4178.77    5230.383000
4180.31    5167.933000
4181.86    5059.354000
4183.40    4677.981000
4184.94    4339.440000
4186.49    4443.242000
4188.03    4691.375000
4189.57    4784.014000
4191.11    4731.405000
4192.66    4887.150000
4194.20    4542.877000
4195.74    4442.742000
4197.29    4615.362000
4198.83    4874.610000
4200.37    4897.984000
4201.92    5113.283000
4203.46    5070.850000
4205.00    5184.100000
4206.55    4928.650000
4208.09    4682.773000
4209.63    4601.778000
4211.17    4673.210000
4212.72    4390.936000
4214.26    4408.116000
4215.80    4483.948000
4217.35    4442.433000
4218.89    4254.595000
4220.43    4498.290000
4221.98    4487.521000
4223.52    4545.833000
4225.06    4839.273000
4226.60    4763.073000
4228.15    4724.513000
4229.69    4853.840000
4231.23    4847.908000
4232.78    4825.672000
4234.32    4761.727000
4235.86    4792.510000
4237.40    4552.908000
4238.95    4375.227000
4240.49    4210.523000
4242.03    4488.742000
4243.58    4560.787000
4245.12    4813.258000
4246.66    4763.024000
4248.21    5373.169000
4249.75    5054.301000
4251.29    5246.513000
4252.84    4971.943000
4254.38    4708.970000
4255.92    4764.417000
4257.46    4978.129000
4259.01    4960.993000
4260.55    5228.780000
4262.09    5255.742000
4263.64    4778.788000
4265.18    4444.912000
4266.72    4305.609000
4268.27    4195.274000
4269.81    4298.683000
4271.35    4772.984000
4272.89    4815.154000
4274.44    4802.210000
4275.98    4918.678000
4277.52    5138.083000
4279.07    5151.258000
4280.61    5106.887000
4282.15    5506.008000
4283.69    5297.321000
4285.24    5606.671000
4286.78    5436.081000
4288.32    5218.469000
4289.87    5249.634000
4291.41    5019.039000
4292.95    4597.868000
4294.50    4735.435000
4296.04    4795.813000
4297.58    5085.857000
4299.12    4874.546000
4300.67    4750.108000
4302.21    5276.994000
4303.75    5210.205000
4305.30    5296.156000
4306.84    5260.506000
4308.38    5133.693000
4309.93    4893.348000
4311.47    4510.770000
4313.01    4303.969000
4314.56    4341.762000
4316.10    4587.434000
4317.64    4706.121000
4319.18    4846.505000
4320.73    5246.902000
4322.27    5045.328000
4323.81    5055.731000
4325.35    4966.173000
4326.90    4840.341000
4328.44    4723.788000
4329.98    4462.776000
4331.53    4429.067000
4333.07    4536.188000
4334.61    4620.341000
4336.16    4702.560000
4337.70    4483.301000
4339.24    4090.731000
4340.79    3915.223000
4342.33    3745.537000
4343.87    3697.853000
4345.41    3659.084000
4346.96    3516.292000
4348.50    3303.548000
4350.04    3238.687000
4351.59    3592.042000
4353.13    3933.369000
4354.67    4461.461000
4356.22    5190.359000
4357.76    5481.338000
4359.30    5686.563000
4360.85    5795.588000
4362.39    5587.521000
4363.93    5303.162000
4365.47    5011.347000
4367.02    4909.053000
4368.56    5162.899000
4370.10    5204.083000
4371.65    5258.824000
4373.19    5728.872000
4374.73    5919.943000
4376.27    5929.014000
4377.82    5834.971000
4379.36    5459.152000
4380.90    5126.552000
4382.45    5054.701000
4383.99    4969.768000
4385.53    5276.167000
4387.08    5628.614000
4388.62    5780.635000
4390.16    5651.541000
4391.70    5559.251000
4393.25    5577.535000
4394.79    5603.403000
4396.33    5490.452000
4397.88    5617.863000
4399.42    5498.657000
4400.96    5744.390000
4402.51    5994.595000
4404.05    6064.670000
4405.59    6053.818000
4407.14    5980.660000
4408.68    6109.261000
4410.22    6004.977000
4411.76    5796.645000
4413.31    5384.214000
4414.85    5460.741000
4416.39    5478.626000
4417.94    5410.755000
4419.48    5452.548000
4421.02    5330.354000
4422.56    5246.544000
4424.11    4691.372000
4425.65    4596.095000
4427.19    4640.961000
4428.74    4829.807000
4430.28    4766.564000
4431.82    5054.979000
4433.37    5059.347000
4434.91    5405.949000
4436.45    5643.606000
4437.99    5713.306000
4439.54    5608.724000
4441.08    5802.577000
4442.62    5709.794000
4444.17    5446.927000
4445.71    5436.693000
4447.25    5084.388000
4448.80    5101.972000
4450.34    5116.758000
4451.88    5533.443000
4453.43    5695.173000
4454.97    5854.223000
4456.51    5923.454000
4458.05    5841.148000
4459.60    5892.453000
4461.14    5889.397000
4462.68    6220.007000
4464.23    6099.346000
4465.77    6292.261000
4467.31    6396.000000
4468.85    6059.972000
4470.40    6294.080000
4471.94    5905.357000
4473.48    5928.548000
4475.03    6028.937000
4476.57    6122.839000
4478.11    5909.015000
4479.66    6075.635000
4481.20    6263.442000
4482.74    6346.125000
4484.28    6133.068000
4485.83    6203.085000
4487.37    6480.075000
4488.91    6682.190000
4490.46    6793.032000
4492.00    6508.368000
4493.54    6827.729000
4495.09    6434.110000
4496.63    6069.839000
4498.17    5844.508000
4499.71    5690.805000
4501.26    5550.796000
4502.80    5416.875000
4504.34    5874.491000
4505.89    5405.234000
4507.43    6065.367000
4508.97    5930.520000
4510.52    6139.076000
4512.06    6098.654000
4513.60    6683.669000
4515.15    6257.359000
4516.69    6652.927000
4518.23    6634.427000
4519.77    6886.458000
4521.32    6786.745000
4522.86    6519.971000
4524.40    6073.967000
4525.94    6391.415000
4527.49    6324.999000
4529.03    6572.820000
4530.57    6428.360000
4532.12    6610.633000
4533.66    6444.810000
4535.20    6614.292000
4536.75    6269.296000
4538.29    6251.560000
4539.83    6382.116000
4541.38    6578.745000
4542.92    6830.826000
4544.46    6794.900000
4546.00    7223.817000
4547.55    7103.684000
4549.09    6937.721000
4550.63    7150.971000
4552.18    7212.348000
4553.72    6858.308000
4555.26    7149.945000
4556.81    6597.271000
4558.35    6647.709000
4559.89    6701.687000
4561.44    6826.464000
4562.98    7082.362000
4564.52    7226.559000
4566.06    7170.418000
4567.61    6826.433000
4569.15    6573.895000
4570.69    5924.192000
4572.23    5955.872000
4573.78    5778.542000
4575.32    6003.435000
4576.86    6029.368000
4578.41    6093.586000
4579.95    6425.186000
4581.49    6648.953000
4583.04    6545.505000
4584.58    6837.749000
4586.12    6918.416000
4587.67    6712.266000
4589.21    6739.213000
4590.75    6541.353000
4592.29    6453.889000
4593.84    6558.932000
4595.38    6816.222000
4596.92    6546.465000
4598.47    6646.485000
4600.01    6842.384000
4601.55    7003.209000
4603.10    6934.822000
4604.64    7031.629000
4606.18    6993.938000
4607.73    6984.891000
4609.27    6939.222000
4610.81    6905.931000
4612.35    6990.578000
4613.90    7072.083000
4615.44    7264.278000
4616.98    6845.007000
4618.52    6906.953000
4620.07    7144.195000
4621.61    7209.611000
4623.15    6679.390000
4624.70    6589.744000
4626.24    6550.434000
4627.78    6563.375000
4629.33    6487.036000
4630.87    6598.643000
4632.41    6663.533000
4633.96    6734.410000
4635.50    6792.520000
4637.04    6674.721000
4638.58    6752.621000
4640.13    6527.275000
4641.67    6429.146000
4643.21    6517.429000
4644.76    6437.809000
4646.30    6728.013000
4647.84    6533.247000
4649.39    6899.977000
4650.93    6856.557000
4652.47    7056.190000
4654.02    7236.160000
4655.56    7153.276000
4657.10    7151.824000
4658.64    7371.017000
4660.19    7204.239000
4661.73    7345.801000
4663.27    7534.590000
4664.81    7409.604000
4666.36    7344.931000
4667.90    7454.080000
4669.44    7149.705000
4670.99    7054.290000
4672.53    7282.358000
4674.07    7474.891000
4675.62    7261.924000
4677.16    7108.246000
4678.70    7137.892000
4680.25    6994.982000
4681.79    6781.497000
4683.33    6634.778000
4684.88    6472.809000
4686.42    6623.733000
4687.96    6391.411000
4689.50    6618.282000
4691.05    6540.875000
4692.59    6431.785000
4694.13    6265.896000
4695.68    6816.465000
4697.22    6764.068000
4698.76    6932.186000
4700.30    6802.293000
4701.85    6746.951000
4703.39    6872.396000
4704.93    7126.612000
4706.48    6923.855000
4708.02    6784.482000
4709.56    6355.035000
4711.10    6460.720000
4712.65    6157.267000
4714.19    6100.589000
4715.73    6120.231000
4717.28    6542.687000
4718.82    6677.147000
4720.36    6587.441000
4721.91    6599.511000
4723.45    6551.814000
4724.99    6406.817000
4726.53    6290.173000
4728.08    6591.543000
4729.62    6731.937000
4731.16    6584.676000
4732.71    6366.771000
4734.25    6503.866000
4735.79    6555.039000
4737.34    6631.218000
4738.88    6628.374000
4740.42    6784.920000
4741.97    6607.534000
4743.51    6267.390000
4745.05    6236.974000
4746.59    6305.388000
4748.14    6184.106000
4749.68    6025.424000
4751.22    5969.052000
4752.77    6158.306000
4754.31    6166.160000
4755.85    6381.817000
4757.40    6297.904000
4758.94    6471.033000
4760.48    6546.350000
4762.02    6357.101000
4763.57    6789.485000
4765.11    7036.803000
4766.65    6902.271000
4768.20    7009.517000
4769.74    6994.429000
4771.28    7038.660000
4772.82    6589.784000
4774.37    6441.678000
4775.91    6671.875000
4777.45    6532.272000
4779.00    6654.668000
4780.54    6773.761000
4782.08    6846.218000
4783.63    6822.435000
4785.17    6827.661000
4786.71    7196.573000
4788.26    6965.573000
4789.80    7090.887000
4791.34    7336.361000
4792.88    7155.151000
4794.43    7093.552000
4795.97    7222.521000
4797.51    7196.722000
4799.06    7032.047000
4800.60    6942.917000
4802.14    6854.313000
4803.69    6859.759000
4805.23    7078.728000
4806.77    6808.068000
4808.31    6696.850000
4809.86    6774.696000
4811.40    6618.064000
4812.94    6628.636000
4814.49    6812.430000
4816.03    6664.375000
4817.57    6861.199000
4819.11    6986.963000
4820.66    7262.666000
4822.20    7406.550000
4823.74    7429.535000
4825.29    7135.473000
4826.83    6885.022000
4828.37    6836.139000
4829.92    6892.494000
4831.46    6862.444000
4833.00    7074.607000
4834.55    6764.530000
4836.09    6867.024000
4837.63    6984.404000
4839.17    6993.160000
4840.72    7091.287000
4842.26    7333.622000
4843.80    7204.934000
4845.35    7181.623000
4846.89    7071.435000
4848.43    6997.648000
4849.98    6947.352000
4851.52    6957.960000
4853.06    6816.402000
4854.60    6861.756000
4856.15    7008.998000
4857.69    7066.577000
4859.23    6875.670000
4860.78    7187.757000
4862.32    7040.014000
4863.86    7378.844000
4865.40    7049.686000
4866.95    6915.106000
4868.49    6917.147000
4870.03    6864.534000
4871.58    7041.593000
4873.12    6776.058000
4874.66    6763.118000
4876.21    6977.852000
4877.75    6714.698000
4879.29    6789.471000
4880.84    6955.720000
4882.38    6663.925000
4883.92    6669.164000
4885.46    6948.850000
4887.01    6727.289000
4888.55    6885.135000
4890.09    6702.965000
4891.64    6932.258000
4893.18    6689.173000
4894.72    6868.065000
4896.27    6687.615000
4897.81    6767.618000
4899.35    6809.117000
4900.89    6570.187000
4902.44    6352.705000
4903.98    6400.349000
4905.52    6117.256000
4907.07    6057.472000
4908.61    5955.267000
4910.15    5985.698000
4911.69    6149.250000
4913.24    6180.490000
4914.78    6207.981000
4916.32    6142.307000
4917.87    6224.274000
4919.41    6152.210000
4920.95    6437.004000
4922.50    6503.193000
4924.04    6658.839000
4925.58    6693.905000
4927.12    6868.628000
4928.67    6850.653000
4930.21    6709.991000
4931.75    6667.221000
4933.30    6248.584000
4934.84    6286.110000
4936.38    6322.777000
4937.93    6327.340000
4939.47    6697.695000
4941.01    6853.505000
4942.56    6971.575000
4944.10    7111.039000
4945.64    7091.179000
4947.18    7208.320000
4948.73    7129.433000
4950.27    7207.186000
4951.81    7014.517000
4953.36    6978.986000
4954.90    6936.689000
4956.44    6877.737000
4957.98    6840.458000
4959.53    6449.105000
4961.07    6696.211000
4962.61    6907.731000
4964.16    6704.381000
4965.70    6339.662000
4967.24    6173.732000
4968.79    6104.862000
4970.33    6152.792000
4971.87    6337.109000
4973.41    6668.701000
4974.96    6782.296000
4976.50    7067.042000
4978.04    6932.033000
4979.59    6922.972000
4981.13    6884.581000
4982.67    6568.992000
4984.22    6801.783000
4985.76    6508.716000
4987.30    6501.085000
4988.85    6632.665000
4990.39    6936.912000
4991.93    6969.029000
4993.47    7280.262000
4995.02    7216.064000
4996.56    7248.893000
4998.10    7281.817000
4999.65    7209.691000
5001.19    7125.136000
5002.73    6978.999000
5004.27    6664.935000
5005.82    6751.649000
5007.36    6740.037000
5008.90    6730.965000
5010.45    6822.494000
5011.99    6739.602000
5013.53    6676.827000
5015.08    6723.617000
5016.62    6746.385000
5018.16    6941.778000
5019.70    6693.528000
5021.25    6678.876000
5022.79    6882.479000
5024.33    6789.861000
5025.88    6708.482000
5027.42    6462.351000
5028.96    6181.150000
5030.51    6093.314000
5032.05    6102.333000
5033.59    6239.477000
5035.14    6315.160000
5036.68    6471.842000
5038.22    6481.525000
5039.76    6568.094000
5041.31    6547.715000
5042.85    6620.542000
5044.39    6593.261000
5045.94    6470.960000
5047.48    6345.514000
5049.02    6166.266000
5050.56    6257.246000
5052.11    6519.194000
5053.65    6771.124000
5055.19    6680.124000
5056.74    6543.346000
5058.28    6405.730000
5059.82    6315.698000
5061.37    6211.687000
5062.91    6081.358000
5064.45    5910.507000
5065.99    5918.923000
5067.54    6002.928000
5069.08    6019.429000
5070.62    6044.258000
5072.17    6017.020000
5073.71    6195.639000
5075.25    6388.197000
5076.80    6439.497000
5078.34    6487.217000
5079.88    6388.258000
5081.43    6467.573000
5082.97    6478.966000
5084.51    6240.670000
5086.05    6118.251000
5087.60    5995.478000
5089.14    5951.624000
5090.68    6005.750000
5092.23    6143.002000
5093.77    6337.833000
5095.31    6322.058000
5096.85    6325.937000
5098.40    6223.692000
5099.94    6233.139000
5101.48    6381.313000
5103.03    6403.780000
5104.57    6554.015000
5106.11    6554.043000
5107.66    6597.110000
5109.20    6464.443000
5110.74    6531.110000
5112.28    6508.075000
5113.83    6440.643000
5115.37    6185.419000
5116.91    6013.006000
5118.46    6187.407000
5120.00    6284.022000
5121.54    6313.860000
5123.09    6097.717000
5124.63    6228.074000
5126.17    6138.216000
5127.72    5827.854000
5129.26    5709.471000
5130.80    5626.226000
5132.34    5849.769000
5133.89    6010.192000
5135.43    6212.381000
5136.97    6299.153000
5138.52    6400.505000
5140.06    6417.630000
5141.60    6318.675000
5143.15    6452.499000
5144.69    6251.776000
5146.23    6122.763000
5147.77    6174.610000
5149.32    6129.299000
5150.86    6061.192000
5152.40    6004.938000
5153.95    6129.473000
5155.49    6142.817000
5157.03    6179.054000
5158.57    6157.615000
5160.12    6325.427000
5161.66    6290.256000
5163.20    6233.971000
5164.75    6363.480000
5166.29    6611.633000
5167.83    6486.195000
5169.38    6332.716000
5170.92    6218.022000
5172.46    6088.589000
5174.01    5924.199000
5175.55    6152.244000
5177.09    6041.259000
5178.63    6363.608000
5180.18    6067.850000
5181.72    6223.562000
5183.26    6115.370000
5184.81    6304.071000
5186.35    6450.389000
5187.89    6267.543000
5189.44    6059.539000
5190.98    6151.017000
5192.52    6136.911000
5194.06    6018.011000
5195.61    6071.136000
5197.15    5876.699000
5198.69    6078.729000
5200.24    6088.331000
5201.78    5965.804000
5203.32    6132.904000
5204.86    5819.822000
5206.41    6190.073000
5207.95    6198.930000
5209.49    6222.192000
5211.04    6029.045000
5212.58    5837.833000
5214.12    5724.304000
5215.67    5251.566000
5217.21    4761.148000
5218.75    4727.751000
5220.30    4624.891000
5221.84    4560.812000
5223.38    4881.349000
5224.92    5038.087000
5226.47    5136.674000
5228.01    5210.822000
5229.55    5236.785000
5231.10    5191.272000
5232.64    5099.323000
5234.18    5225.826000
5235.73    5120.110000
5237.27    5198.592000
5238.81    5435.253000
5240.35    5627.669000
5241.90    5720.252000
5243.44    5814.962000
5244.98    5966.455000
5246.53    6125.660000
5248.07    6238.391000
5249.61    6203.932000
5251.15    6104.848000
5252.70    5997.521000
5254.24    5948.858000
5255.78    5741.626000
5257.33    5530.823000
5258.87    5743.692000
5260.41    5745.075000
5261.96    5963.456000
5263.50    6137.117000
5265.04    6232.124000
5266.59    6354.389000
5268.13    6435.360000
5269.67    6577.633000
5271.21    6516.508000
5272.76    6404.497000
5274.30    6271.039000
5275.84    6145.706000
5277.39    6227.077000
5278.93    6188.055000
5280.47    6102.937000
5282.02    6278.647000
5283.56    6466.796000
5285.10    6483.231000
5286.64    6530.445000
5288.19    6727.262000
5289.73    6729.155000
5291.27    6764.626000
5292.82    6911.907000
5294.36    6875.411000
5295.90    6829.498000
5297.44    6564.441000
5298.99    6303.846000
5300.53    6570.312000
5302.07    6629.692000
5303.62    6640.016000
5305.16    6706.947000
5306.70    6711.596000
5308.25    6696.911000
5309.79    6599.809000
5311.33    6465.817000
5312.88    6437.010000
5314.42    6123.062000
5315.96    5796.882000
5317.50    5779.362000
5319.05    5673.215000
5320.59    5692.762000
5322.13    5731.243000
5323.68    6003.895000
5325.22    6227.622000
5326.76    6360.134000
5328.31    6498.449000
5329.85    6734.772000
5331.39    6707.252000
5332.93    6691.159000
5334.48    6714.979000
5336.02    6844.014000
5337.56    6908.329000
5339.11    7052.104000
5340.65    7361.382000
5342.19    7284.314000
5343.73    7048.814000
5345.28    6971.754000
5346.82    6940.199000
5348.36    6597.507000
5349.91    6705.526000
5351.45    6715.876000
5352.99    6977.138000
5354.54    6920.458000
5356.08    6978.839000
5357.62    7051.716000
5359.16    7135.418000
5360.71    7144.449000
5362.25    7341.212000
5363.79    7160.559000
5365.34    7170.486000
5366.88    7124.581000
5368.42    7140.249000
5369.97    7077.011000
5371.51    6812.052000
5373.05    6642.874000
5374.60    6624.754000
5376.14    6339.256000
5377.68    6203.609000
5379.22    6143.521000
5380.77    6201.188000
5382.31    6362.168000
5383.85    6271.897000
5385.40    6613.705000
5386.94    6738.507000
5388.48    6838.762000
5390.02    6704.480000
5391.57    6640.826000
5393.11    6542.184000
5394.65    6424.836000
5396.20    6607.867000
5397.74    6470.785000
5399.28    6562.162000
5400.83    6572.920000
5402.37    6735.696000
5403.91    6956.120000
5405.45    6751.531000
5407.00    7190.582000
5408.54    7241.125000
5410.08    7173.151000
5411.63    7083.583000
5413.17    6900.740000
5414.71    6887.853000
5416.26    6846.061000
5417.80    6630.277000
5419.34    6432.458000
5420.89    6334.844000
5422.43    6455.483000
5423.97    6435.456000
5425.51    6425.563000
5427.06    6663.174000
5428.60    6775.132000
5430.14    6822.399000
5431.69    6749.229000
5433.23    6747.322000
5434.77    6847.990000
5436.31    6970.533000
5437.86    6877.203000
5439.40    6769.191000
5440.94    6747.979000
5442.49    6659.614000
5444.03    6649.078000
5445.57    6418.902000
5447.12    6347.458000
5448.66    6583.742000
5450.20    6400.055000
5451.74    6422.613000
5453.29    6506.636000
5454.83    6374.494000
5456.37    6311.481000
5457.92    6236.757000
5459.46    6160.343000
5461.00    6289.233000
5462.55    6463.023000
5464.09    6526.905000
5465.63    6607.609000
5467.18    6664.755000
5468.72    6788.027000
5470.26    6830.573000
5471.80    6924.338000
5473.35    6921.871000
5474.89    6945.756000
5476.43    6896.843000
5477.98    6728.077000
5479.52    6812.836000
5481.06    6750.441000
5482.60    6715.828000
5484.15    6721.256000
5485.69    6634.801000
5487.23    6586.890000
5488.78    6652.948000
5490.32    6817.634000
5491.86    6948.814000
5493.41    6979.135000
5494.95    6890.391000
5496.49    6831.840000
5498.03    6858.306000
5499.58    6774.204000
5501.12    6612.329000
5502.66    6659.951000
5504.21    6706.732000
5505.75    6634.468000
5507.29    6604.779000
5508.84    6587.128000
5510.38    6486.162000
5511.92    6464.441000
5513.47    6605.447000
5515.01    6492.139000
5516.55    6364.210000
5518.09    6597.058000
5519.64    6818.040000
5521.18    6563.442000
5522.72    6370.685000
5524.27    6497.882000
5525.81    6604.763000
5527.35    6253.894000
5528.90    6320.488000
5530.44    6345.924000
5531.98    6141.205000
5533.52    6247.473000
5535.07    6313.528000
5536.61    6294.605000
5538.15    6423.398000
5539.70    6412.674000
5541.24    6326.291000
5542.78    6454.311000
5544.32    6519.292000
5545.87    6579.625000
5547.41    6577.667000
5548.95    6459.351000
5550.50    6230.078000
5552.04    6576.442000
5553.58    6515.148000
5555.12    6459.353000
5556.67    6601.438000
5558.21    6420.092000
5559.75    6305.424000
5561.30    6305.789000
5562.84    6375.117000
5564.38    6225.110000
5565.93    6213.342000
5567.47    6154.256000
5569.01    6285.235000
5570.56    6385.132000
5572.10    6705.346000
5573.64    7371.521000
5575.19    6873.066000
5576.73    6629.700000
5578.27    6522.052000
5579.81    7475.891000
5581.36    6996.602000
5582.90    5690.890000
5584.44    5308.783000
5585.98    5937.766000
5587.53    6484.681000
5589.07    6726.467000
5590.61    6913.628000
5592.16    6869.680000
5593.70    6753.765000
5595.24    6761.417000
5596.79    6890.953000
5598.33    6872.299000
5599.87    6905.711000
5601.42    6914.658000
5602.96    6974.378000
5604.50    6951.494000
5606.05    6980.393000
5607.59    6875.794000
5609.13    6868.462000
5610.67    6782.971000
5612.22    6794.806000
5613.76    6715.233000
5615.30    6716.746000
5616.85    6762.171000
5618.39    6729.249000
5619.93    6713.239000
5621.48    6680.196000
5623.02    6682.077000
5624.56    6718.649000
5626.10    6826.545000
5627.65    6868.239000
5629.19    6946.108000
5630.73    6875.076000
5632.27    6875.773000
5633.82    6681.010000
5635.36    6660.876000
5636.90    6655.855000
5638.45    6656.507000
5639.99    6625.958000
5641.53    6572.157000
5643.08    6422.129000
5644.62    6432.856000
5646.16    6549.772000
5647.71    6569.941000
5649.25    6663.493000
5650.79    6600.494000
5652.34    6583.328000
5653.88    6737.038000
5655.42    6873.824000
5656.96    6905.719000
5658.51    6949.892000
5660.05    6798.097000
5661.59    6800.217000
5663.14    6959.187000
5664.68    6957.996000
5666.22    6898.739000
5667.77    6870.140000
5669.31    6876.724000
5670.85    6809.418000
5672.39    6750.596000
5673.94    6725.431000
5675.48    6746.854000
5677.02    6733.937000
5678.56    6765.596000
5680.11    6771.707000
5681.65    6809.050000
5683.19    6802.001000
5684.74    6832.522000
5686.28    6995.677000
5687.82    7010.521000
5689.37    7017.126000
5690.91    6979.946000
5692.45    6950.022000
5694.00    6872.638000
5695.54    6757.042000
5697.08    6730.354000
5698.62    6749.008000
5700.17    6783.524000
5701.71    6866.327000
5703.25    6848.047000
5704.80    6875.227000
5706.34    7016.187000
5707.88    7094.991000
5709.43    6935.923000
5710.97    6940.363000
5712.51    6655.280000
5714.06    6665.018000
5715.60    6772.142000
5717.14    6784.451000
5718.68    6931.849000
5720.23    6902.266000
5721.77    6922.347000
5723.31    6868.292000
5724.85    6857.461000
5726.40    6838.333000
5727.94    6865.632000
5729.48    7009.474000
5731.03    7108.805000
5732.57    7077.414000
5734.11    7100.676000
5735.66    6842.661000
5737.20    6825.712000
5738.74    6815.787000
5740.29    6821.371000
5741.83    6997.233000
5743.37    6982.850000
5744.91    7031.381000
5746.46    7070.072000
5748.00    7185.165000
5749.54    7124.279000
5751.09    7121.662000
5752.63    7042.958000
5754.17    7038.475000
5755.72    6860.534000
5757.26    6838.364000
5758.80    6605.126000
5760.35    6581.675000
5761.89    6727.654000
5763.43    6717.005000
5764.97    6831.921000
5766.52    6809.410000
5768.06    6837.188000
5769.60    6844.945000
5771.15    6930.990000
5772.69    6938.300000
5774.23    6996.735000
5775.77    7083.430000
5777.32    7182.801000
5778.86    7274.578000
5780.40    7349.265000
5781.95    7247.005000
5783.49    7257.311000
5785.03    7337.441000
5786.58    7337.479000
5788.12    7333.376000
5789.66    7281.000000
5791.20    7191.971000
5792.75    7210.530000
5794.29    7333.261000
5795.83    7297.135000
5797.38    7308.451000
5798.92    7368.412000
5800.46    7469.226000
5802.01    7359.720000
5803.55    7343.570000
5805.09    7288.229000
5806.64    7305.549000
5808.18    7296.621000
5809.72    7297.740000
5811.26    7169.706000
5812.81    7166.682000
5814.35    7327.591000
5815.89    7295.606000
5817.44    7311.427000
5818.98    7326.541000
5820.52    7419.327000
5822.06    7483.401000
5823.61    7601.085000
5825.15    7472.923000
5826.69    7435.254000
5828.24    7402.710000
5829.78    7429.365000
5831.32    7248.584000
5832.86    7247.176000
5834.41    7449.167000
5835.95    7412.276000
5837.49    7014.970000
5839.04    6996.765000
5840.58    7045.087000
5842.12    7044.902000
5843.67    7119.977000
5845.21    7150.736000
5846.75    7250.341000
5848.30    7283.070000
5849.84    7353.482000
5851.38    7464.690000
5852.93    7554.461000
5854.47    7382.425000
5856.01    7372.215000
5857.55    7379.526000
5859.10    7388.721000
5860.64    7515.391000
5862.18    7492.688000
5863.73    7537.654000
5865.27    7501.445000
5866.81    7509.944000
5868.35    7458.412000
5869.90    7445.240000
5871.44    7489.062000
5872.98    7581.697000
5874.53    7522.244000
5876.07    7532.984000
5877.61    7527.097000
5879.15    7560.167000
5880.70    7448.375000
5882.24    7461.554000
5883.78    7313.582000
5885.33    7302.250000
5886.87    7264.057000
5888.41    7227.011000
5889.96    7211.272000
5891.50    7206.820000
5893.04    7271.750000
5894.59    7179.255000
5896.13    7130.646000
5897.67    7214.646000
5899.21    7318.761000
5900.76    7232.404000
5902.30    7231.434000
5903.84    7202.018000
5905.39    7229.038000
5906.93    7051.617000
5908.47    7039.837000
5910.02    7034.604000
5911.56    7008.634000
5913.10    7025.978000
5914.65    6955.152000
5916.19    6873.854000
5917.73    6917.245000
5919.27    7038.505000
5920.82    6954.294000
5922.36    6925.319000
5923.90    7012.016000
5925.44    7100.266000
5926.99    7036.297000
5928.53    7048.925000
5930.07    7126.577000
5931.62    7137.095000
5933.16    6960.345000
5934.70    6922.060000
5936.25    6843.761000
5937.79    6736.570000
5939.33    6495.296000
5940.88    6352.397000
5942.42    6164.663000
5943.96    5988.925000
5945.50    5840.729000
5947.05    5576.144000
5948.59    5430.175000
5950.13    5314.060000
5951.68    5293.947000
5953.22    5553.791000
5954.76    5630.310000
5956.31    6089.641000
5957.85    6131.183000
5959.39    6400.986000
5960.94    6418.559000
5962.48    6623.784000
5964.02    6663.107000
5965.56    6827.216000
5967.11    6845.148000
5968.65    6925.257000
5970.19    6872.753000
5971.73    6877.056000
5973.28    6858.351000
5974.82    6884.958000
5976.36    6941.250000
5977.91    6987.720000
5979.45    6996.776000
5980.99    6996.636000
5982.54    6941.079000
5984.08    6917.092000
5985.62    6942.359000
5987.17    6924.854000
5988.71    6968.409000
5990.25    6989.044000
5991.79    7094.322000
5993.34    7025.809000
5994.88    7005.392000
5996.42    6967.019000
5997.97    6982.513000
5999.51    7057.984000
6001.05    7122.270000
6002.60    7041.608000
6004.14    7056.443000
6005.68    7045.681000
6007.23    7042.105000
6008.77    7024.345000
6010.31    7011.236000
6011.85    7090.700000
6013.40    7053.176000
6014.94    7050.956000
6016.48    6985.912000
6018.02    6959.282000
6019.57    6948.050000
6021.11    6986.411000
6022.65    7099.593000
6024.20    7188.978000
6025.74    7145.354000
6027.28    7165.655000
6028.83    7217.450000
6030.37    7225.656000
6031.91    7222.272000
6033.45    7185.884000
6035.00    7148.840000
6036.54    7065.462000
6038.08    6933.913000
6039.63    6904.639000
6041.17    6926.376000
6042.71    6926.346000
6044.26    6973.669000
6045.80    6901.799000
6047.34    6897.863000
6048.89    6853.292000
6050.43    6873.237000
6051.97    6947.454000
6053.52    6986.713000
6055.06    7073.819000
6056.60    7071.274000
6058.14    7083.030000
6059.69    7069.757000
6061.23    7134.562000
6062.77    6993.899000
6064.31    6793.448000
6065.86    6775.934000
6067.40    6806.832000
6068.94    6836.227000
6070.49    6902.644000
6072.03    7074.678000
6073.57    7184.646000
6075.12    6941.622000
6076.66    6916.791000
6078.20    6949.347000
6079.74    6956.140000
6081.29    6990.692000
6082.83    6979.198000
6084.38    7066.392000
6085.92    7076.174000
6087.46    7193.547000
6089.00    7141.545000
6090.55    7127.296000
6092.09    7178.525000
6093.63    7271.958000
6095.18    7332.484000
6096.72    7405.187000
6098.26    7228.763000
6099.81    7210.732000
6101.35    7478.355000
6102.89    7516.415000
6104.43    7290.128000
6105.98    7269.230000
6107.52    7347.318000
6109.06    7367.355000
6110.60    7539.502000
6112.15    7494.325000
6113.69    7486.325000
6115.23    7384.108000
6116.78    7330.775000
6118.32    7330.072000
6119.86    7372.621000
6121.41    7400.980000
6122.95    7448.527000
6125.49    7277.057000
6126.03    7273.256000
6127.58    7295.184000
6129.12    7302.392000
6130.66    7361.259000
6132.21    7346.945000
6133.75    7422.041000
6135.29    7415.107000
6136.84    7491.847000
6138.38    7363.062000
6139.92    7249.281000
6141.47    7186.393000
6143.01    7179.821000
6144.55    7122.628000
6146.09    7134.505000
6147.64    7174.764000
6149.18    7218.053000
6150.72    7215.553000
6152.27    7217.144000
6153.81    7190.220000
6155.35    7165.332000
6156.90    7208.104000
6158.44    7216.466000
6159.98    7339.914000
6161.52    7224.364000
6163.07    7098.284000
6164.61    7119.146000
6166.15    7195.709000
6167.70    7091.868000
6169.24    7066.434000
6170.78    7121.347000
6172.32    7175.627000
6173.87    7134.652000
6175.41    7159.413000
6176.95    7123.287000
6178.50    7127.477000
6180.04    7202.096000
6181.58    7153.943000
6183.13    7088.126000
6184.67    7098.481000
6186.21    7204.280000
6187.76    7226.463000
6189.30    7311.722000
6190.84    7191.215000
6192.38    7141.540000
6193.93    7098.013000
6195.47    7117.302000
6197.01    7010.826000
6198.56    7014.607000
6200.10    7075.337000
6201.64    7081.778000
6203.19    7139.912000
6204.73    7118.434000
6206.27    7162.182000
6207.81    7135.877000
6209.36    7157.101000
6210.90    7053.803000
6212.44    6955.560000
6213.99    6913.533000
6215.53    6924.782000
6217.07    6766.182000
6218.61    6709.917000
6220.16    6564.119000
6221.70    6545.483000
6223.24    6502.009000
6224.79    6523.908000
6226.33    6585.150000
6227.87    6585.159000
6229.42    6596.840000
6230.96    6596.342000
6232.50    6709.125000
6234.05    6714.283000
6235.59    6793.646000
6237.13    6827.808000
6238.67    6920.420000
6240.22    6945.324000
6241.76    7005.627000
6243.30    6852.059000
6244.85    6822.510000
6246.39    6599.543000
6247.93    6577.176000
6249.48    6597.163000
6251.02    6601.640000
6252.56    6694.949000
6254.10    6686.075000
6255.65    6780.830000
6257.19    6770.792000
6258.73    6828.149000
6260.28    6783.514000
6261.82    6781.971000
6263.36    6783.672000
6264.90    6830.295000
6266.45    6740.068000
6267.99    6726.855000
6269.53    6666.622000
6271.08    6678.480000
6272.62    6537.483000
6274.16    6536.632000
6275.71    6295.760000
6277.25    6262.429000
6278.79    6107.768000
6280.34    6080.873000
6281.88    6092.028000
6283.42    6148.697000
6284.96    6312.142000
6286.51    6297.418000
6288.05    6327.485000
6289.59    6258.148000
6291.14    6250.839000
6292.68    6326.497000
6294.22    6388.083000
6295.77    6418.896000
6297.31    6452.116000
6298.85    6389.511000
6300.40    6396.219000
6301.94    6574.250000
6303.48    6532.968000
6305.02    6474.532000
6306.57    6420.574000
6308.11    6370.891000
6309.65    6351.250000
6311.19    6381.691000
6312.74    6270.402000
6314.28    6216.797000
6315.82    6178.368000
6317.37    6191.316000
6318.91    6228.555000
6320.45    6269.480000
6322.00    6346.544000
6323.54    6360.799000
6325.08    6596.035000
6326.62    6573.043000
6328.17    6595.810000
6329.71    6540.265000
6331.25    6474.585000
6332.80    6491.636000
6334.34    6581.508000
6335.88    6619.757000
6337.43    6706.598000
6338.97    6658.533000
6340.51    6669.408000
6342.06    6654.930000
6343.60    6681.439000
6345.14    6843.852000
6346.68    6901.184000
6348.23    6909.285000
6349.77    6897.354000
6351.31    6750.140000
6352.86    6735.408000
6354.40    6793.759000
6355.94    6744.087000
6357.48    6712.339000
6359.03    6648.204000
6360.57    6624.104000
6362.11    6573.210000
6363.66    6574.099000
6365.20    6663.963000
6366.74    6741.056000
6368.29    6642.310000
6369.83    6648.892000
6371.37    6634.048000
6372.91    6634.194000
6374.46    6637.991000
6376.00    6612.794000
6377.54    6638.061000
6379.09    6587.912000
6380.63    6537.171000
6382.17    6534.820000
6383.72    6589.938000
6385.26    6595.401000
6386.80    6650.303000
6388.35    6662.731000
6389.89    6707.315000
6391.43    6721.858000
6392.97    6758.333000
6394.52    6796.704000
6396.06    6830.190000
6397.60    6769.257000
6399.15    6758.885000
6400.69    6673.204000
6402.23    6632.494000
6403.77    6592.801000
6405.32    6598.854000
6406.86    6685.392000
6408.40    6669.260000
6409.95    6701.104000
6411.49    6582.757000
6413.03    6535.303000
6414.58    6481.964000
6416.12    6494.055000
6417.66    6493.762000
6419.20    6521.597000
6420.75    6460.947000
6422.29    6445.275000
6423.83    6208.895000
6425.38    6221.668000
6426.92    6428.114000
6428.46    6441.835000
6430.01    6554.998000
6431.55    6555.264000
6433.09    6612.255000
6434.64    6619.193000
6436.18    6673.707000
6437.72    6594.867000
6439.26    6586.844000
6440.81    6581.665000
6442.35    6610.224000
6443.89    6725.904000
6445.44    6770.654000
6446.98    6475.476000
6448.52    6459.615000
6450.06    6360.685000
6451.61    6370.358000
6453.15    6496.728000
6454.69    6484.612000
6456.24    6532.375000
6457.78    6443.098000
6459.32    6391.071000
6460.87    6453.781000
6462.41    6535.175000
6463.95    6502.124000
6465.49    6523.542000
6467.04    6409.509000
6468.58    6413.058000
6470.12    6418.598000
6471.67    6407.487000
6473.21    6276.158000
6474.75    6243.308000
6476.30    6215.799000
6477.84    6221.074000
6479.38    6305.225000
6480.93    6299.331000
6482.47    6343.486000
6484.01    6391.571000
6485.55    6477.646000
6487.10    6438.219000
6488.64    6451.943000
6490.18    6400.760000
6491.73    6414.911000
6493.27    6224.877000
6494.81    6210.328000
6496.35    6420.958000
6497.90    6388.540000
6499.44    6344.310000
6500.98    6368.465000
6502.53    6537.303000
6504.07    6481.311000
6505.61    6447.154000
6507.16    6362.062000
6508.70    6318.601000
6510.24    6236.603000
6511.78    6219.588000
6513.33    6321.385000
6514.87    6392.726000
6516.41    6171.926000
6517.96    6157.212000
6519.50    6153.888000
6521.04    6170.908000
6522.59    6404.859000
6524.13    6386.004000
6525.67    6422.173000
6527.22    6382.921000
6528.76    6368.941000
6530.30    6387.662000
6531.84    6467.404000
6533.39    6428.652000
6534.93    6438.115000
6536.47    6479.264000
6538.02    6532.544000
6539.56    6411.353000
6541.10    6408.250000
6542.65    6285.933000
6544.19    6280.193000
6545.73    6351.992000
6547.27    6323.360000
6548.82    6307.868000
6550.36    6271.896000
6551.90    6262.710000
6553.45    6197.060000
6554.99    6148.853000
6556.53    6001.527000
6558.07    5898.907000
6559.62    5889.820000
6561.16    5920.307000
6562.70    5932.748000
6564.25    5964.918000
6565.79    6100.090000
6567.33    6146.346000
6568.88    6255.842000
6570.42    6253.558000
6571.96    6251.642000
6573.51    6262.208000
6575.05    6401.872000
6576.59    6380.934000
6578.13    6405.908000
6579.68    6404.844000
6581.22    6457.348000
6582.76    6316.061000
6584.31    6249.233000
6585.85    6335.422000
6587.39    6405.772000
6588.94    6363.634000
6590.48    6383.733000
6592.02    6418.671000
6593.56    6419.542000
6595.11    6370.295000
6596.65    6325.700000
6598.19    6233.790000
6599.74    6229.187000
6601.28    6301.270000
6602.82    6307.649000
6604.36    6371.777000
6605.91    6460.895000
6607.45    6585.707000
6608.99    6577.719000
6610.54    6612.360000
6612.08    6412.015000
6613.62    6378.195000
6615.17    6329.074000
6616.71    6347.464000
6618.25    6150.753000
6619.80    6153.031000
6621.34    6179.660000
6622.88    6112.539000
6624.42    5982.769000
6625.97    5995.147000
6627.51    6077.556000
6629.05    5992.149000
6630.60    5944.570000
6632.14    6000.380000
6633.68    6074.823000
6635.23    6022.407000
6636.77    6030.533000
6638.31    6149.409000
6639.85    6202.516000
6641.40    6458.371000
6642.94    6493.278000
6644.48    6807.316000
6646.03    6833.010000
6647.57    7093.070000
6649.11    6946.200000
6650.65    6684.513000
6652.20    6555.438000
6653.74    6431.411000
6655.28    6242.487000
6656.83    6121.121000
6658.37    6070.976000
6659.91    6080.056000
6661.46    6020.804000
6663.00    6030.831000
6664.54    6077.711000
6666.09    6083.937000
6667.63    6129.215000
6669.17    6070.103000
6670.71    5837.352000
6672.26    5870.797000
6673.80    6054.059000
6675.34    6016.198000
6676.89    6013.480000
6678.43    6004.488000
6679.97    6038.094000
6681.52    6070.679000
6683.06    6126.872000
6684.60    6090.847000
6686.14    6106.528000
6687.69    5950.990000
6689.23    5949.125000
6690.77    5727.694000
6692.32    5728.457000
6693.86    5847.549000
6695.40    5819.917000
6696.94    5819.976000
6698.49    5786.857000
6700.03    5779.217000
6701.57    5739.042000
6703.12    5733.054000
6704.66    5766.914000
6706.20    5833.681000
6707.75    5776.422000
6709.29    5778.653000
6710.83    5738.065000
6712.38    5752.744000
6713.92    5734.994000
6715.46    5734.769000
6717.00    5805.856000
6718.55    5766.793000
6720.09    5676.621000
6721.63    5660.637000
6723.18    5690.894000
6724.72    5650.114000
6726.26    5640.833000
6727.81    5660.745000
6729.35    5719.678000
6730.89    5532.212000
6732.43    5449.537000
6733.98    5648.471000
6735.52    5746.891000
6737.06    5722.256000
6738.60    5741.489000
6740.15    5775.084000
6741.69    5764.751000
6743.23    5675.829000
6744.78    5662.918000
6746.32    5716.353000
6747.86    5702.326000
6749.41    5734.041000
6750.95    5744.823000
6752.49    5802.262000
6754.04    5748.530000
6755.58    5746.583000
6757.12    5633.737000
6758.66    5611.633000
6760.21    5529.495000
6761.75    5534.022000
6763.29    5563.281000
6764.84    5573.090000
6766.38    5683.883000
6767.92    5648.419000
6769.47    5587.309000
6771.01    5576.198000
6772.55    5616.982000
6774.10    5589.076000
6775.64    5600.517000
6777.18    5647.367000
6778.72    5728.587000
6780.27    5723.016000
6781.81    5751.156000
6783.35    5707.696000
6784.90    5722.522000
6786.44    5672.378000
6787.98    5687.931000
6789.52    5604.385000
6791.07    5597.750000
6792.61    5582.204000
6794.15    5597.017000
6795.70    5731.257000
6797.24    5726.368000
6798.78    5774.486000
6800.33    5631.767000
6801.87    5515.708000
6803.41    5397.643000
6804.95    5346.927000
6806.50    5363.368000
6808.04    5396.688000
6809.58    5329.105000
6811.13    5337.404000
6812.67    5389.714000
6814.21    5391.943000
6815.76    5352.888000
6817.30    5351.342000
6818.84    5448.457000
6820.39    5436.711000
6821.93    5478.555000
6823.47    5422.861000
6825.01    5390.483000
6826.56    5357.036000
6828.10    5363.012000
6829.64    5303.164000
6831.19    5302.535000
6832.73    5324.924000
6834.27    5355.479000
6835.81    5322.565000
6837.36    5322.028000
6838.90    5471.149000
6840.44    5432.021000
6841.99    5327.252000
6843.53    5325.097000
6845.07    5393.819000
6846.62    5355.550000
6848.16    5340.394000
6849.70    5346.568000
6851.24    5395.139000
6852.79    5359.802000
6854.33    5367.647000
6855.87    5153.421000
6857.42    5096.397000
6858.96    5210.594000
6860.50    5255.530000
6862.05    5101.777000
6863.59    5101.572000
6865.13    5182.731000
6866.68    5176.093000
6868.22    5241.129000
6869.76    5123.372000
6871.30    4929.100000
6872.85    4883.098000
6874.39    4862.375000
6875.93    4920.739000
6877.48    4999.030000
6879.02    5043.067000
6880.56    5093.190000
6882.10    5035.161000
6883.65    5042.047000
6885.19    4972.849000
6886.73    4966.756000
6888.28    5009.265000
6889.82    5007.079000
6891.36    5115.188000
6892.91    5073.205000
6894.45    5023.142000
6895.99    5044.108000
6897.53    5123.979000
6899.08    5056.140000
6900.62    5027.156000
6902.16    5052.016000
6903.71    5095.659000
6905.25    5050.708000
6906.79    5058.752000
6908.34    5083.061000
6909.88    5109.610000
6911.42    4987.159000
6912.97    4995.996000
6914.51    5122.745000
6916.05    5104.623000
6917.59    5129.044000
6919.14    5099.150000
6920.68    5092.568000
6922.22    5070.459000
6923.77    5082.805000
6925.31    4989.596000
6926.85    4949.716000
6928.40    4907.072000
6929.94    4914.940000
6931.48    4972.011000
6933.02    5007.153000
6934.57    5040.295000
6936.11    5039.218000
6937.65    4977.562000
6939.19    4956.743000
6940.74    4955.758000
6942.28    4961.727000
6943.82    5038.950000
6945.37    4974.156000
6946.91    4924.076000
6948.45    4945.278000
6950.00    4998.365000
6951.54    4934.870000
6953.08    4925.753000
6954.63    4923.328000
6956.17    4945.283000
6957.71    4956.541000
6959.26    4979.724000
6960.80    5162.286000
6962.34    5152.307000
6963.88    5079.838000
6965.43    5063.591000
6966.97    5093.195000
6968.51    5086.080000
6970.06    5123.827000
6971.60    5095.445000
6973.14    5101.159000
6974.69    5111.484000
6976.23    5152.051000
6977.77    5028.114000
6979.31    5001.098000
6980.86    4999.354000
6982.40    5020.180000
6983.94    4945.859000
6985.48    4939.288000
6987.03    4932.819000
6988.57    4930.282000
6990.11    5015.690000
6991.66    4953.027000
6993.20    4862.752000
6994.74    4859.999000
6996.29    4900.713000
6997.83    4886.954000
6999.37    4906.911000
7000.92    4905.058000
7002.46    4930.292000
7004.00    4893.238000
7005.55    4906.482000
7007.09    5027.170000
7008.63    5042.962000
7010.17    4932.689000
7011.72    4903.579000
7013.26    4837.898000
7014.80    4829.169000
7016.35    4877.369000
7017.89    4860.052000
7019.43    4876.436000
7020.98    4878.950000
7022.52    4916.900000
7024.06    4877.560000
7025.60    4882.453000
7027.15    4892.858000
7028.69    4920.581000
7030.23    4947.945000
7031.77    4973.717000
7033.32    4991.949000
7034.86    4988.571000
7036.40    4924.644000
7037.95    4909.605000
7039.49    4935.547000
7041.03    4880.158000
7042.58    4813.094000
7044.12    4825.452000
7045.66    4884.276000
7047.21    4872.511000
7048.75    4893.814000
7050.29    4895.541000
7051.83    4921.913000
7053.38    4905.861000
7054.92    4925.269000
7056.46    4871.842000
7058.01    4870.991000
7059.55    5003.814000
7061.09    4978.878000
7062.64    4962.048000
7064.18    4924.063000
7065.72    4882.622000
7067.27    4894.304000
7068.81    4958.205000
7070.35    4894.786000
7071.89    4865.535000
7073.44    4768.102000
7074.98    4737.454000
7076.52    4723.519000
7078.06    4740.931000
7079.61    4651.725000
7081.15    4655.778000
7082.69    4879.923000
7084.24    4890.138000
7085.78    4934.042000
7087.32    4885.341000
7088.87    4783.559000
7090.41    4785.899000
7091.95    4846.044000
7093.50    4849.731000
7095.04    4892.048000
7096.58    4873.972000
7098.12    4890.197000
7099.67    4900.898000
7101.21    4930.719000
7102.75    4856.624000
7104.30    4861.723000
7105.84    4751.757000
7107.38    4749.424000
7108.93    4891.120000
7110.47    4862.113000
7112.01    4825.312000
7113.56    4843.150000
7115.10    4950.250000
7116.64    4910.937000
7118.18    4894.472000
7119.73    4745.661000
7121.27    4641.235000
7122.81    4593.208000
7124.35    4590.879000
7125.90    4415.925000
7127.44    4379.361000
7128.98    4438.439000
7130.53    4464.765000
7132.07    4443.114000
7133.61    4431.113000
7135.16    4335.331000
7136.70    4355.451000
7138.24    4491.170000
7139.78    4509.565000
7141.33    4594.131000
7142.87    4554.697000
7144.41    4543.533000
7145.96    4512.530000
7147.50    4517.437000
7149.04    4425.775000
7150.59    4411.046000
7152.13    4287.852000
7153.67    4279.373000
7155.22    4286.809000
7156.76    4284.663000
7158.30    4240.696000
7159.85    4218.283000
7161.39    4204.644000
7162.93    4186.506000
7164.47    4192.719000
7166.02    4163.706000
7167.56    4157.752000
7169.10    4192.887000
7170.65    4253.708000
7172.19    4080.428000
7173.73    4009.666000
7175.27    4003.071000
7176.82    4019.252000
7178.36    4015.417000
7179.90    4018.277000
7181.45    4065.429000
7182.99    4047.549000
7184.53    4035.299000
7186.07    4028.441000
7187.62    4064.954000
7189.16    4062.242000
7190.70    4100.224000
7192.25    4008.113000
7193.79    3937.975000
7195.33    3866.262000
7196.88    3841.045000
7198.42    3841.293000
7199.96    3861.741000
7201.51    3895.556000
7203.05    3918.308000
7204.59    3912.709000
7206.14    3908.503000
7207.68    3881.137000
7209.22    3875.205000
7210.76    3920.719000
7212.31    3894.041000
7213.85    3878.706000
7215.39    3843.337000
7216.94    3827.711000
7218.48    3799.563000
7220.02    3802.833000
7221.56    3803.155000
7223.11    3823.198000
7224.65    3778.958000
7226.19    3783.769000
7227.74    3807.406000
7229.28    3815.156000
7230.82    3947.084000
7232.36    3921.763000
7233.91    3864.470000
7235.45    3856.055000
7236.99    3888.683000
7238.54    3897.118000
7240.08    3946.930000
7241.62    3991.607000
7243.17    4064.657000
7244.71    3985.938000
7246.25    3961.683000
7247.80    3846.150000
7249.34    3822.924000
7250.88    3749.144000
7252.42    3751.939000
7253.97    3818.253000
7255.51    3812.380000
7257.05    3757.989000
7258.60    3759.813000
7260.14    3829.682000
7261.68    3788.657000
7263.23    3744.883000
7264.77    3744.329000
7266.31    3775.601000
7267.85    3757.552000
7269.40    3766.896000
7270.94    3646.214000
7272.48    3609.233000
7274.03    3861.991000
7275.57    3942.050000
7277.11    3852.597000
7278.65    3846.225000
7280.20    3859.379000
7281.74    3839.701000
7283.28    3819.519000
7284.83    3813.042000
7286.37    3848.712000
7287.91    3811.020000
7289.46    3786.997000
7291.00    3794.427000
7292.54    3827.204000
7294.09    3833.623000
7295.63    3860.409000
7297.17    3849.118000
7298.71    3863.273000
7300.26    3851.490000
7301.80    3865.191000
7303.34    3802.836000
7304.89    3804.450000
7306.43    3825.057000
7307.97    3815.183000
7309.52    3840.395000
7311.06    3811.627000
7312.60    3795.504000
7314.15    3857.445000
7315.69    3960.991000
7317.23    3996.992000
7318.77    4046.824000
7320.32    3972.313000
7321.86    3960.348000
7323.40    3886.953000
7324.94    3888.929000
7326.49    3845.750000
7328.03    3841.122000
7329.57    3807.594000
7331.12    3782.611000
7332.66    3746.685000
7334.20    3715.575000
7335.75    3684.694000
7337.29    3720.745000
7338.83    3803.870000
7340.38    3827.481000
7341.92    3873.562000
7343.46    3821.136000
7345.00    3815.310000
7346.55    3774.752000
7348.09    3779.708000
7349.63    3709.481000
7351.18    3700.965000
7352.72    3672.379000
7354.26    3661.930000
7355.81    3691.489000
7357.35    3692.872000
7358.89    3750.590000
7360.44    3728.129000
7361.98    3727.712000
7363.52    3705.315000
7365.06    3707.997000
7366.61    3707.580000
7368.15    3728.936000
7369.69    3695.612000
7371.23    3700.491000
7372.78    3723.021000
7374.32    3744.379000
7375.86    3783.784000
7377.41    3783.543000
7378.95    3761.623000
7380.49    3760.485000
7382.04    3831.092000
7383.58    3794.172000
7385.12    3754.500000
7386.66    3758.819000
7388.21    3795.264000
7389.75    3774.855000
7391.29    3784.260000
7392.84    3767.719000
7394.38    3779.187000
7395.92    3728.009000
7397.47    3730.601000
7399.01    3735.134000
7400.55    3735.483000
7402.10    3733.976000
7403.64    3719.215000
7405.18    3721.226000
7406.73    3728.234000
7408.27    3798.816000
7409.81    3790.351000
7411.35    3814.686000
7412.90    3773.121000
7414.44    3757.461000
7415.98    3730.231000
7417.52    3734.376000
7419.07    3716.633000
7420.61    3729.505000
7422.15    3643.615000
7423.70    3643.732000
7425.24    3660.190000
7426.78    3663.401000
7428.33    3700.984000
7429.87    3653.854000
7431.41    3540.185000
7432.95    3527.138000
7434.50    3537.953000
7436.04    3571.447000
7437.58    3641.351000
7439.13    3680.251000
7440.67    3735.275000
7442.21    3741.502000
7443.76    3763.538000
7445.30    3738.577000
7446.84    3748.695000
7448.39    3666.815000
7449.93    3661.799000
7451.47    3664.704000
7453.01    3657.857000
7454.56    3702.899000
7456.10    3662.260000
7457.64    3601.523000
7459.19    3596.551000
7460.73    3623.722000
7462.27    3611.919000
7463.81    3625.310000
7465.36    3581.722000
7466.90    3576.109000
7468.44    3603.503000
7469.99    3630.903000
7471.53    3710.238000
7473.07    3737.053000
7474.62    3651.548000
7476.16    3639.307000
7477.70    3564.477000
7479.24    3559.961000
7480.79    3600.002000
7482.33    3573.743000
7483.87    3559.726000
7485.42    3524.096000
7486.96    3509.152000
7488.50    3480.889000
7490.05    3483.303000
7491.59    3452.436000
7493.13    3456.408000
7494.68    3425.760000
7496.22    3433.580000
7497.76    3474.210000
7499.30    3481.681000
7500.85    3544.044000
7502.39    3525.668000
7503.93    3508.768000
7505.48    3492.086000
7507.02    3497.186000
7508.56    3490.529000
7510.10    3510.689000
7511.65    3510.661000
7513.19    3533.816000
7514.73    3536.806000
7516.28    3557.491000
7517.82    3499.402000
7519.36    3499.159000
7520.91    3440.793000
7522.45    3434.868000
7523.99    3458.297000
7525.53    3448.819000
7527.08    3488.772000
7528.62    3475.221000
7530.16    3482.877000
7531.71    3459.930000
7533.25    3452.582000
7534.79    3421.661000
7536.34    3415.137000
7537.88    3386.712000
7539.42    3387.313000
7540.97    3385.521000
7542.51    3401.337000
7544.05    3399.579000
7545.59    3413.455000
7547.14    3360.972000
7548.68    3365.498000
7550.22    3449.656000
7551.77    3428.191000
7553.31    3399.264000
7554.85    3384.996000
7556.40    3394.825000
7557.94    3396.334000
7559.48    3426.182000
7561.02    3427.484000
7562.57    3450.513000
7564.11    3365.146000
7565.65    3341.357000
7567.20    3320.683000
7568.74    3329.774000
7570.28    3321.193000
7571.82    3323.275000
7573.37    3430.550000
7574.91    3422.554000
7576.45    3467.439000
7578.00    3447.191000
7579.54    3435.374000
7581.08    3396.860000
7582.63    3364.319000
7584.17    3348.024000
7585.71    3357.168000
7587.26    3333.483000
7588.80    3337.522000
7590.34    3306.346000
7591.88    3310.709000
7593.43    3200.303000
7594.97    3195.353000
7596.51    3111.241000
7598.06    3085.863000
7599.60    2849.111000
7601.14    2852.339000
7602.69    2913.515000
7604.23    2895.352000
7605.77    2891.500000
7607.31    2970.070000
7608.86    3092.281000
7610.40    3165.596000
7611.94    3242.389000
7613.49    3098.515000
7615.03    3048.484000
7616.57    3148.221000
7618.11    3186.913000
7619.66    3172.790000
7621.20    3173.240000
7622.74    3234.085000
7624.29    3217.171000
7625.83    3197.082000
7627.37    3161.439000
7628.92    3106.799000
7630.46    3089.532000
7632.00    3090.263000
7633.55    3101.423000
7635.09    3135.284000
7636.63    3128.941000
7638.17    3142.571000
7639.72    3045.830000
7641.26    3027.538000
7642.80    2963.332000
7644.35    2966.571000
7645.89    3105.918000
7647.43    3115.609000
7648.98    3194.046000
7650.52    3160.983000
7652.06    3099.004000
7653.60    3085.310000
7655.15    3090.429000
7656.69    3059.655000
7658.23    3046.717000
7659.78    3030.858000
7661.32    3039.274000
7662.86    3020.954000
7664.40    3028.136000
7665.95    3033.651000
7667.49    3047.871000
7669.03    2865.731000
7670.58    2858.520000
7672.12    2972.798000
7673.66    2951.752000
7675.21    2909.610000
7676.75    2885.436000
7678.29    2860.835000
7679.84    2866.214000
7681.38    2900.812000
7682.92    2878.366000
7684.46    2877.292000
7686.01    2878.225000
7687.55    2894.302000
7689.09    2822.624000
7690.64    2814.663000
7692.18    2958.051000
7693.72    2979.143000
7695.27    2919.541000
7696.81    2907.640000
7698.35    2897.997000
7699.89    2877.588000
7701.44    2858.268000
7702.98    2866.598000
7704.52    2909.704000
7706.07    2874.417000
7707.61    2856.669000
7709.15    2943.088000
7710.69    3020.771000
7712.24    2900.198000
7713.78    2866.063000
7715.32    2908.719000
7716.87    2929.471000
7718.41    2924.573000
7719.95    2922.298000
7721.50    2883.597000
7723.04    2859.894000
7724.58    2810.034000
7726.12    2797.182000
7727.67    2799.950000
7729.21    2748.272000
7730.75    2702.867000
7732.30    2645.789000
7733.84    2614.828000
7735.38    2611.542000
7736.93    2623.639000
7738.47    2575.469000
7740.01    2574.560000
7741.56    2568.176000
7743.10    2570.311000
7744.64    2691.998000
7746.18    2680.274000
7747.73    2680.840000
7749.27    2695.213000
7750.81    2774.474000
7752.36    2727.091000
7753.90    2673.016000
7755.44    2676.701000
7756.98    2699.481000
7758.53    2636.891000
7760.07    2613.564000
7761.61    2641.539000
7763.16    2664.499000
7764.70    2651.302000
7766.24    2659.866000
7767.79    2653.622000
7769.33    2646.661000
7770.87    2568.949000
7772.41    2575.422000
7773.96    2645.182000
7775.50    2617.691000
7777.04    2590.761000
7778.59    2560.342000
7780.13    2542.040000
7781.67    2540.893000
7783.22    2555.844000
7784.76    2555.297000
7786.30    2568.186000
7787.85    2559.937000
7789.39    2570.077000
7790.93    2551.815000
7792.47    2550.829000
7794.02    2555.514000
7795.56    2548.172000
7797.10    2571.167000
7798.65    2580.394000
7800.19    2638.585000
7801.73    2615.209000
7803.27    2602.037000
7804.82    2608.937000
7806.36    2635.158000
7807.90    2618.654000
7809.45    2623.440000
7810.99    2621.065000
7812.53    2632.519000
7814.08    2608.465000
7815.62    2615.264000
7817.16    2567.644000
7818.70    2562.749000
7820.25    2525.469000
7821.79    2516.230000
7823.33    2523.424000
7824.88    2499.180000
7826.42    2479.924000
7827.96    2482.773000
7829.51    2505.120000
7831.05    2483.971000
7832.59    2483.481000
7834.14    2502.353000
7835.68    2524.339000
7837.22    2505.452000
7838.76    2511.892000
7840.31    2551.060000
7841.85    2554.496000
7843.39    2563.657000
7844.94    2557.794000
7846.48    2586.792000
7848.02    2563.801000
7849.56    2537.902000
7851.11    2539.667000
7852.65    2564.091000
7854.19    2567.167000
7855.74    2588.587000
7857.28    2503.985000
7858.82    2470.861000
7860.37    2518.801000
7861.91    2545.182000
7863.45    2554.840000
7864.99    2563.912000
7866.54    2492.166000
7868.08    2482.616000
7869.62    2442.848000
7871.17    2435.944000
7872.71    2449.651000
7874.25    2461.155000
7875.80    2508.512000
7877.34    2486.641000
7878.88    2480.684000
7880.43    2453.458000
7881.97    2449.218000
7883.51    2435.210000
7885.05    2442.581000
7886.60    2493.189000
7888.14    2513.984000
7889.68    2507.207000
7891.23    2505.202000
7892.77    2495.838000
7894.31    2477.767000
7895.85    2444.802000
7897.40    2409.975000
7898.94    2357.815000
7900.48    2378.143000
7902.03    2425.564000
7903.57    2421.495000
7905.11    2435.095000
7906.66    2397.053000
7908.20    2390.200000
7909.74    2425.503000
7911.28    2446.327000
7912.83    2500.844000
7914.37    2507.456000
7915.91    2422.488000
7917.46    2407.513000
7919.00    2373.266000
7920.54    2368.190000
7922.09    2388.933000
7923.63    2385.281000
7925.17    2401.541000
7926.72    2379.395000
7928.26    2373.325000
7929.80    2329.719000
7931.34    2315.123000
7932.89    2313.197000
7934.43    2324.584000
7935.97    2310.702000
7937.52    2317.727000
7939.06    2336.774000
7940.60    2338.334000
7942.15    2362.581000
7943.69    2343.616000
7945.23    2308.963000
7946.77    2299.504000
7948.32    2304.505000
7949.86    2282.964000
7951.40    2275.261000
7952.95    2230.659000
7954.49    2209.287000
7956.03    2191.452000
7957.57    2194.259000
7959.12    2229.214000
7960.66    2247.926000
7962.20    2276.051000
7963.75    2279.960000
7965.29    2281.662000
7966.83    2267.435000
7968.38    2239.589000
7969.92    2237.574000
7971.46    2263.830000
7973.01    2249.452000
7974.55    2247.013000
7976.09    2210.693000
7977.63    2190.588000
7979.18    2189.754000
7980.72    2202.594000
7982.26    2176.529000
7983.81    2177.802000
7985.35    2198.973000
7986.89    2211.205000
7988.44    2186.953000
7989.98    2184.869000
7991.52    2183.048000
7993.06    2170.606000
7994.61    2160.677000
7996.15    2136.593000
7997.69    2111.301000
7999.24    2069.008000
8000.78    2035.770000
8002.32    2046.356000
8003.86    2066.640000
8005.41    2065.863000
8006.95    2075.925000
8008.49    2052.778000
8010.04    2057.076000
8011.58    2065.429000
8013.12    2064.043000
8014.67    2020.275000
8016.21    2014.946000
8017.75    2030.548000
8019.30    2018.288000
8020.84    2014.540000
8022.38    2014.173000
8023.92    2031.036000
8025.47    2023.865000
8027.01    2030.842000
8028.55    2064.600000
8030.10    2095.652000
8031.64    2071.149000
8033.18    2072.967000
8034.73    2006.608000
8036.27    2005.545000
8037.81    2136.809000
8039.35    2134.495000
8040.90    2118.069000
8042.44    2112.624000
8043.98    2126.347000
8045.53    2100.378000
8047.07    2073.585000
8048.61    2067.707000
8050.15    2077.830000
8051.70    2097.503000
8053.24    2123.517000
8054.78    2086.627000
8056.33    2081.829000
8057.87    2076.929000
8059.41    2085.467000
8060.96    2065.207000
8062.50    2067.665000
8064.04    2121.518000
8065.59    2101.752000
8067.13    2057.167000
8068.67    2060.318000
8070.21    2091.470000
8071.76    2067.387000
8073.30    2051.398000
8074.84    2075.606000
8076.39    2109.671000
8077.93    2084.799000
8079.47    2083.981000
8081.02    2077.753000
8082.56    2085.305000
8084.10    2105.088000
8085.64    2107.552000
8087.19    2117.321000
8088.73    2093.216000
8090.27    1989.277000
8091.81    2020.943000
8093.36    2144.033000
8094.90    2113.718000
8096.44    2083.786000
8097.99    2045.725000
8099.53    2020.489000
8101.07    2037.498000
8102.62    2060.203000
8104.16    2042.092000
8105.70    2045.989000
8107.25    2013.729000
8108.79    2016.160000
8110.33    1986.756000
8111.88    1991.988000
8113.42    2068.437000
8114.96    2051.854000
8116.50    2024.449000
8118.05    2008.356000
8119.59    1995.921000
8121.13    2020.944000
8122.68    2069.289000
8124.22    2033.181000
8125.76    2018.307000
8127.31    1971.323000
8128.85    1958.914000
8130.39    1928.437000
8131.93    1929.022000
8133.48    1856.553000
8135.02    1850.922000
8136.56    1856.238000
8138.11    1856.744000
8139.65    1903.481000
8141.19    1878.293000
8142.73    1833.734000
8144.28    1811.033000
8145.82    1792.804000
8147.36    1771.822000
8148.91    1763.506000
8150.45    1751.284000
8151.99    1753.724000
8153.54    1795.563000
8155.08    1819.247000
8156.62    1798.296000
8158.16    1802.227000
8159.71    1757.193000
8161.25    1748.291000
8162.79    1683.399000
8164.34    1674.515000
8165.88    1669.328000
8167.42    1685.323000
8168.97    1734.704000
8170.51    1736.044000
8172.05    1751.022000
8173.60    1715.564000
8175.14    1700.531000
8176.68    1705.598000
8178.22    1716.471000
8179.77    1740.836000
8181.31    1754.024000
8182.85    1800.713000
8184.40    1804.604000
8185.94    1795.824000
8187.48    1788.654000
8189.02    1790.205000
8190.57    1777.421000
8192.11    1769.003000
8193.65    1763.943000
8195.20    1773.136000
8196.74    1763.469000
8198.28    1769.650000
8199.83    1828.276000
8201.37    1873.834000
8202.91    1863.812000
8204.45    1869.994000
8206.00    1870.428000
8207.54    1879.955000
8209.08    1919.365000
8210.63    1927.420000
8212.17    1987.858000
8213.71    1964.110000
8215.26    1923.182000
8216.80    1897.915000
8218.34    1875.247000
8219.89    1846.406000
8221.43    1828.873000
8222.97    1765.688000
8224.51    1734.989000
8226.06    1679.444000
8227.60    1667.111000
8229.14    1628.147000
8230.69    1627.510000
8232.23    1673.261000
8233.77    1681.088000
8235.31    1763.349000
8236.86    1776.055000
8238.40    1871.290000
8239.94    1860.746000
8241.49    1863.729000
8243.03    1845.740000
8244.57    1837.566000
8246.11    1857.901000
8247.66    1890.748000
8249.20    1902.077000
8250.74    1920.887000
8252.29    1910.235000
8253.83    1916.542000
8255.37    1893.810000
8256.92    1891.760000
8258.46    1860.393000
8260.00    1854.707000
8261.55    1871.128000
8263.09    1859.663000
8264.63    1858.299000
8266.17    1836.441000
8267.72    1821.055000
8269.26    1826.614000
8270.80    1846.784000
8272.35    1798.855000
8273.89    1780.887000
8275.43    1717.683000
8276.98    1704.224000
8278.52    1703.782000
8280.06    1711.399000
8281.60    1702.921000
8283.15    1702.552000
8284.69    1706.123000
8286.23    1698.476000
8287.78    1700.172000
8289.32    1699.047000
8290.86    1720.499000
8292.41    1723.422000
8293.95    1744.822000
8295.49    1736.404000
8297.03    1741.579000
8298.58    1762.704000
8300.12    1784.569000
8301.66    1761.157000
8303.21    1763.508000
8304.75    1769.312000
8306.29    1770.749000
8307.84    1783.290000
8309.38    1775.313000
8310.92    1775.011000
8312.47    1770.274000
8314.01    1786.860000
8315.55    1778.323000
8317.09    1785.237000
8318.64    1758.437000
8320.18    1745.297000
8321.72    1728.965000
8323.27    1731.418000
8324.81    1769.889000
8326.35    1793.943000
8327.90    1850.143000
8329.44    1867.473000
8330.98    1771.355000
8332.52    1768.283000
8334.07    1764.085000
8335.61    1772.152000
8337.15    1833.520000
8338.69    1820.428000
8340.24    1818.508000
8341.78    1811.406000
8343.32    1820.632000
8344.87    1817.722000
8346.41    1827.676000
8347.95    1803.067000
8349.50    1803.631000
8351.04    1715.990000
8352.58    1704.695000
8354.12    1712.316000
8355.67    1710.000000
8357.21    1665.036000
8358.75    1665.447000
8360.30    1706.762000
8361.84    1711.154000
8363.38    1749.491000
8364.93    1733.056000
8366.47    1727.711000
8368.01    1703.792000
8369.56    1694.184000
8371.10    1683.886000
8372.64    1689.794000
8374.18    1688.108000
8375.73    1697.483000
8377.27    1655.406000
8378.81    1656.688000
8380.36    1738.273000
8381.90    1733.836000
8383.44    1702.967000
8384.99    1698.985000
8386.53    1713.814000
8388.07    1696.786000
8389.61    1686.661000
8391.16    1644.464000
8392.70    1612.218000
8394.24    1605.163000
8395.79    1610.625000
8397.33    1670.052000
8398.87    1705.202000
8400.42    1711.799000
8401.96    1722.416000
8403.50    1722.192000
8405.05    1719.237000
8406.59    1691.647000
8408.13    1673.880000
8409.67    1633.889000
8411.22    1623.663000
8412.76    1620.342000
8414.30    1624.327000
8415.85    1647.230000
8417.39    1622.053000
8418.93    1611.807000
8420.48    1584.220000
8422.02    1580.474000
8423.56    1588.066000
8425.10    1599.405000
8426.65    1568.652000
8428.19    1565.116000
8429.73    1621.226000
8431.27    1611.639000
8432.82    1602.226000
8434.36    1606.350000
8435.90    1643.796000
8437.45    1606.199000
8438.99    1560.499000
8440.53    1568.651000
8442.08    1591.738000
8443.62    1552.628000
8445.16    1536.745000
8446.70    1609.936000
8448.25    1647.913000
8449.79    1627.688000
8451.33    1632.490000
8452.88    1628.740000
8454.42    1622.885000
8455.96    1569.718000
8457.51    1569.416000
8459.05    1604.065000
8460.59    1589.121000
8462.14    1575.752000
8463.68    1595.810000
8465.22    1638.394000
8466.76    1621.192000
8468.31    1620.315000
8469.85    1618.441000
8471.39    1626.712000
8472.94    1568.466000
8474.48    1561.887000
8476.02    1485.381000
8477.57    1479.420000
8479.11    1564.101000
8480.65    1563.809000
8482.19    1610.507000
8483.74    1590.246000
8485.28    1556.524000
8486.82    1549.912000
8488.37    1557.272000
8489.91    1584.568000
8491.45    1625.749000
8493.00    1582.051000
8494.54    1565.064000
8496.08    1633.456000
8497.62    1667.311000
8499.17    1619.061000
8500.71    1619.521000
8502.25    1555.657000
8503.80    1552.368000
8505.34    1549.562000
8506.88    1540.225000
8508.43    1537.835000
